#VisAO z-prime
#Effective wavelength =      0.90969793 microns
#Effective width =       0.12102354 microns
#note: no atmosphere included
#     lambda     trans     RSR       RSR+atm
     0.754000      0.00000      0.00000      0.00000
     0.754500  2.30506e-06  2.06022e-06  2.06022e-06
     0.755000  2.41550e-06  2.16036e-06  2.16036e-06
     0.755500  3.33574e-06  2.98536e-06  2.98536e-06
     0.756000  2.77270e-06  2.48311e-06  2.48311e-06
     0.756500  1.85366e-06  1.66116e-06  1.66116e-06
     0.757000  1.53153e-06  1.37339e-06  1.37339e-06
     0.757500  1.70091e-06  1.52629e-06  1.52629e-06
     0.758000  1.82207e-06  1.63608e-06  1.63608e-06
     0.758500  2.27509e-06  2.04421e-06  2.04421e-06
     0.759000  5.18478e-06  4.66169e-06  4.66169e-06
     0.759500  2.96817e-06  2.67047e-06  2.67047e-06
     0.760000  3.22554e-06  2.90394e-06  2.90394e-06
     0.760500  3.69140e-06  3.32554e-06  3.32554e-06
     0.761000  3.09639e-06  2.79133e-06  2.79133e-06
     0.761500  1.92792e-06  1.73912e-06  1.73912e-06
     0.762000  2.92006e-06  2.63583e-06  2.63583e-06
     0.762500  4.67773e-06  4.22519e-06  4.22519e-06
     0.763000  4.51933e-06  4.08479e-06  4.08479e-06
     0.763500  4.81574e-06  4.35555e-06  4.35555e-06
     0.764000  3.38647e-06  3.06487e-06  3.06487e-06
     0.764500  3.21235e-06  2.90918e-06  2.90918e-06
     0.765000  4.10284e-06  3.71807e-06  3.71807e-06
     0.765500  5.24638e-06  4.75747e-06  4.75747e-06
     0.766000  3.47455e-06  3.15282e-06  3.15282e-06
     0.766500  4.41611e-06  4.00981e-06  4.00981e-06
     0.767000  5.58631e-06  5.07565e-06  5.07565e-06
     0.767500  4.18421e-06  3.80420e-06  3.80420e-06
     0.768000  3.96102e-06  3.60362e-06  3.60362e-06
     0.768500  5.10152e-06  4.64424e-06  4.64424e-06
     0.769000  5.92960e-06  5.40160e-06  5.40160e-06
     0.769500  6.71264e-06  6.11890e-06  6.11890e-06
     0.770000  6.47630e-06  5.90730e-06  5.90730e-06
     0.770500  6.28056e-06  5.73248e-06  5.73248e-06
     0.771000  7.23173e-06  6.60493e-06  6.60493e-06
     0.771500  8.01741e-06  7.32726e-06  7.32726e-06
     0.772000  8.53336e-06  7.80385e-06  7.80385e-06
     0.772500  1.00577e-05  9.20381e-06  9.20381e-06
     0.773000  8.91208e-06  8.16074e-06  8.16074e-06
     0.773500  1.01468e-05  9.29740e-06  9.29740e-06
     0.774000  1.10697e-05  1.01496e-05  1.01496e-05
     0.774500  1.27973e-05  1.17412e-05  1.17412e-05
     0.775000  1.17740e-05  1.08093e-05  1.08093e-05
     0.775500  1.16745e-05  1.07248e-05  1.07248e-05
     0.776000  1.29981e-05  1.19485e-05  1.19485e-05
     0.776500  1.53472e-05  1.41170e-05  1.41170e-05
     0.777000  1.45148e-05  1.33599e-05  1.33599e-05
     0.777500  1.58300e-05  1.45799e-05  1.45799e-05
     0.778000  1.51350e-05  1.39487e-05  1.39487e-05
     0.778500  1.81515e-05  1.67395e-05  1.67395e-05
     0.779000  1.97868e-05  1.82593e-05  1.82593e-05
     0.779500  2.06694e-05  1.90861e-05  1.90861e-05
     0.780000  2.07858e-05  1.92058e-05  1.92058e-05
     0.780500  2.05219e-05  1.89742e-05  1.89742e-05
     0.781000  2.33995e-05  2.16486e-05  2.16486e-05
     0.781500  2.49536e-05  2.31012e-05  2.31012e-05
     0.782000  2.73564e-05  2.53418e-05  2.53418e-05
     0.782500  2.98413e-05  2.76614e-05  2.76614e-05
     0.783000  2.87408e-05  2.66583e-05  2.66583e-05
     0.783500  3.54783e-05  3.29286e-05  3.29286e-05
     0.784000  3.36685e-05  3.12688e-05  3.12688e-05
     0.784500  3.73337e-05  3.46948e-05  3.46948e-05
     0.785000  3.96063e-05  3.68303e-05  3.68303e-05
     0.785500  4.31292e-05  4.01318e-05  4.01318e-05
     0.786000  4.54722e-05  4.23389e-05  4.23389e-05
     0.786500  4.95471e-05  4.61623e-05  4.61623e-05
     0.787000  5.29678e-05  4.93808e-05  4.93808e-05
     0.787500  5.89139e-05  5.49591e-05  5.49591e-05
     0.788000  6.13396e-05  5.72583e-05  5.72583e-05
     0.788500  6.38941e-05  5.96807e-05  5.96807e-05
     0.789000  6.99095e-05  6.53408e-05  6.53408e-05
     0.789500  7.60497e-05  7.11248e-05  7.11248e-05
     0.790000  8.05062e-05  7.53404e-05  7.53404e-05
     0.790500  8.86502e-05  8.30143e-05  8.30143e-05
     0.791000  9.14325e-05  8.56739e-05  8.56739e-05
     0.791500  0.000100046  9.38040e-05  9.38040e-05
     0.792000  0.000109659  0.000102882  0.000102882
     0.792500  0.000116623  0.000109485  0.000109485
     0.793000  0.000125941  0.000118307  0.000118307
     0.793500  0.000134719  0.000126633  0.000126633
     0.794000  0.000146451  0.000137748  0.000137748
     0.794500  0.000158893  0.000149545  0.000149545
     0.795000  0.000170614  0.000160676  0.000160676
     0.795500  0.000184491  0.000173855  0.000173855
     0.796000  0.000199192  0.000187826  0.000187826
     0.796500  0.000215195  0.000203044  0.000203044
     0.797000  0.000234206  0.000221120  0.000221120
     0.797500  0.000252180  0.000238239  0.000238239
     0.798000  0.000274832  0.000259802  0.000259802
     0.798500  0.000297614  0.000281514  0.000281514
     0.799000  0.000324448  0.000307088  0.000307088
     0.799500  0.000350088  0.000331564  0.000331564
     0.800000  0.000380283  0.000360386  0.000360386
     0.800500  0.000415677  0.000394175  0.000394175
     0.801000  0.000450808  0.000427755  0.000427755
     0.801500  0.000493944  0.000468978  0.000468978
     0.802000  0.000537353  0.000510511  0.000510511
     0.802500  0.000585485  0.000556586  0.000556586
     0.803000  0.000639472  0.000608286  0.000608286
     0.803500  0.000696567  0.000663010  0.000663010
     0.804000  0.000765775  0.000729338  0.000729338
     0.804500  0.000834658  0.000795437  0.000795437
     0.805000  0.000911285  0.000869003  0.000869003
     0.805500  0.000997282  0.000951600  0.000951600
     0.806000   0.00109315   0.00104373   0.00104373
     0.806500   0.00119887   0.00114537   0.00114537
     0.807000   0.00131297   0.00125516   0.00125516
     0.807500   0.00144324   0.00138055   0.00138055
     0.808000   0.00158833   0.00152028   0.00152028
     0.808500   0.00174568   0.00167192   0.00167192
     0.809000   0.00193073   0.00185029   0.00185029
     0.809500   0.00212650   0.00203917   0.00203917
     0.810000   0.00233921   0.00224453   0.00224453
     0.810500   0.00258771   0.00248450   0.00248450
     0.811000   0.00285346   0.00274135   0.00274135
     0.811500   0.00315214   0.00303015   0.00303015
     0.812000   0.00348278   0.00335007   0.00335007
     0.812500   0.00386724   0.00372216   0.00372216
     0.813000   0.00429121   0.00413278   0.00413278
     0.813500   0.00475595   0.00458317   0.00458317
     0.814000   0.00528558   0.00509669   0.00509669
     0.814500   0.00587041   0.00566410   0.00566410
     0.815000   0.00653267   0.00630695   0.00630695
     0.815500   0.00729274   0.00704508   0.00704508
     0.816000   0.00814360   0.00787187   0.00787187
     0.816500   0.00908462   0.00878687   0.00878687
     0.817000    0.0101643   0.00983720   0.00983720
     0.817500    0.0114125    0.0110520    0.0110520
     0.818000    0.0127788    0.0123827    0.0123827
     0.818500    0.0143414    0.0139053    0.0139053
     0.819000    0.0161219    0.0156413    0.0156413
     0.819500    0.0181060    0.0175769    0.0175769
     0.820000    0.0203808    0.0197973    0.0197973
     0.820500    0.0229723    0.0223282    0.0223282
     0.821000    0.0258905    0.0251799    0.0251799
     0.821500    0.0291756    0.0283922    0.0283922
     0.822000    0.0330069    0.0321402    0.0321402
     0.822500    0.0373439    0.0363854    0.0363854
     0.823000    0.0422856    0.0412253    0.0412253
     0.823500    0.0478828    0.0467105    0.0467105
     0.824000    0.0545151    0.0532127    0.0532127
     0.824500    0.0618795    0.0604378    0.0604378
     0.825000    0.0702354    0.0686406    0.0686406
     0.825500    0.0798832    0.0781166    0.0781166
     0.826000    0.0907471    0.0887941    0.0887941
     0.826500     0.103109     0.100951     0.100951
     0.827000     0.117066     0.114686     0.114686
     0.827500     0.132641     0.130022     0.130022
     0.828000     0.150157     0.147281     0.147281
     0.828500     0.170582     0.167416     0.167416
     0.829000     0.193399     0.189924     0.189924
     0.829500     0.218227     0.214435     0.214435
     0.830000     0.246062     0.241932     0.241932
     0.830500     0.276676     0.272197     0.272197
     0.831000     0.310128     0.305290     0.305290
     0.831500     0.347069     0.341861     0.341861
     0.832000     0.386084     0.380519     0.380519
     0.832500     0.427274     0.421369     0.421369
     0.833000     0.470018     0.463800     0.463800
     0.833500     0.514064     0.507568     0.507568
     0.834000     0.558882     0.552151     0.552151
     0.834500     0.603113     0.596206     0.596206
     0.835000     0.647763     0.640728     0.640728
     0.835500     0.691250     0.684152     0.684152
     0.836000     0.731766     0.724686     0.724686
     0.836500     0.770288     0.763291     0.763291
     0.837000     0.805670     0.798829     0.798829
     0.837500     0.837617     0.831001     0.831001
     0.838000     0.866089     0.859761     0.859761
     0.838500     0.893345     0.887347     0.887347
     0.839000     0.917770     0.912152     0.912152
     0.839500     0.935972     0.930797     0.930797
     0.840000     0.951556     0.946858     0.946858
     0.840500     0.963916     0.959728     0.959728
     0.841000     0.973214     0.969563     0.969563
     0.841500     0.980698     0.977599     0.977599
     0.842000     0.986407     0.983874     0.983874
     0.842500     0.990778     0.988821     0.988821
     0.843000     0.993060     0.991687     0.991687
     0.843500     0.997451     0.996662     0.996662
     0.844000      1.00000     0.999801     0.999801
     0.844500     0.999606      1.00000      1.00000
     0.845000     0.998487     0.999471     0.999471
     0.845500     0.997524     0.999099     0.999099
     0.846000     0.995421     0.997581     0.997581
     0.846500     0.993596     0.996341     0.996341
     0.847000     0.991191     0.994517     0.994517
     0.847500     0.989040     0.992944     0.992944
     0.848000     0.986473     0.990952     0.990952
     0.848500     0.983858     0.988907     0.988907
     0.849000     0.981214     0.986830     0.986830
     0.849500     0.978254     0.984433     0.984433
     0.850000     0.977885     0.984641     0.984641
     0.850500     0.976724     0.984051     0.984051
     0.851000     0.973793     0.981674     0.981674
     0.851500     0.971041     0.979476     0.979476
     0.852000     0.968269     0.977253     0.977253
     0.852500     0.965459     0.974989     0.974989
     0.853000     0.962247     0.972315     0.972315
     0.853500     0.959800     0.970411     0.970411
     0.854000     0.958813     0.969980     0.969980
     0.854500     0.958190     0.969917     0.969917
     0.855000     0.955308     0.967567     0.967567
     0.855500     0.952452     0.965238     0.965238
     0.856000     0.949691     0.963002     0.963002
     0.856500     0.946640     0.960470     0.960470
     0.857000     0.944364     0.958719     0.958719
     0.857500     0.944105     0.959016     0.959016
     0.858000     0.942349     0.957790     0.957790
     0.858500     0.939785     0.955740     0.955740
     0.859000     0.936903     0.953365     0.953365
     0.859500     0.933258     0.950208     0.950208
     0.860000     0.930678     0.948133     0.948133
     0.860500     0.928082     0.946038     0.946038
     0.861000     0.926142     0.944609     0.944609
     0.861500     0.925523     0.944526     0.944526
     0.862000     0.924901     0.944439     0.944439
     0.862500     0.921956     0.941978     0.941978
     0.863000     0.919422     0.939933     0.939933
     0.863500     0.917259     0.938265     0.938265
     0.864000     0.914764     0.936255     0.936255
     0.864500     0.913690     0.935697     0.935697
     0.865000     0.913885     0.936437     0.936437
     0.865500     0.912128     0.935177     0.935177
     0.866000     0.909407     0.932927     0.932927
     0.866500     0.907057     0.931053     0.931053
     0.867000     0.903774     0.928218     0.928218
     0.867500     0.901948     0.926877     0.926877
     0.868000     0.902014     0.927479     0.927479
     0.868500     0.901442     0.927425     0.927425
     0.869000     0.898698     0.925134     0.925134
     0.869500     0.896140     0.923032     0.923032
     0.870000     0.894346     0.921714     0.921714
     0.870500     0.890020     0.917783     0.917783
     0.871000     0.887538     0.915749     0.915749
     0.871500     0.886449     0.915150     0.915150
     0.872000     0.883389     0.912515     0.912515
     0.872500     0.879326     0.908838     0.908838
     0.873000     0.875989     0.905908     0.905908
     0.873500     0.872598     0.902918     0.902918
     0.874000     0.869520     0.900249     0.900249
     0.874500     0.867060     0.898215     0.898215
     0.875000     0.866404     0.898048     0.898048
     0.875500     0.863467     0.895516     0.895516
     0.876000     0.859201     0.891600     0.891600
     0.876500     0.855974     0.888758     0.888758
     0.877000     0.851627     0.884750     0.884750
     0.877500     0.848994     0.882517     0.882517
     0.878000     0.847839     0.881819     0.881819
     0.878500     0.844626     0.878977     0.878977
     0.879000     0.840918     0.875616     0.875616
     0.879500     0.837571     0.872627     0.872627
     0.880000     0.833535     0.868915     0.868915
     0.880500     0.830355     0.866093     0.866093
     0.881000     0.827384     0.863484     0.863484
     0.881500     0.824655     0.861124     0.861124
     0.882000     0.824209     0.861147     0.861147
     0.882500     0.821479     0.858782     0.858782
     0.883000     0.818071     0.855703     0.855703
     0.883500     0.814976     0.852948     0.852948
     0.884000     0.811947     0.850259     0.850259
     0.884500     0.808728     0.847368     0.847368
     0.885000     0.805715     0.844687     0.844687
     0.885500     0.803389     0.842725     0.842725
     0.886000     0.802824     0.842607     0.842607
     0.886500     0.800256     0.840386     0.840386
     0.887000     0.797663     0.838135     0.838135
     0.887500     0.794660     0.835451     0.835451
     0.888000     0.790424     0.831466     0.831466
     0.888500     0.787967     0.829348     0.829348
     0.889000     0.785191     0.826891     0.826891
     0.889500     0.785856     0.828057     0.828057
     0.890000     0.781768     0.824212     0.824212
     0.890500     0.778878     0.821626     0.821626
     0.891000     0.776057     0.819111     0.819111
     0.891500     0.773956     0.817352     0.817352
     0.892000     0.772909     0.816703     0.816703
     0.892500     0.769707     0.813776     0.813776
     0.893000     0.767542     0.811941     0.811941
     0.893500     0.765125     0.809838     0.809838
     0.894000     0.761052     0.805978     0.805978
     0.894500     0.757340     0.802495     0.802495
     0.895000     0.754553     0.799989     0.799989
     0.895500     0.752254     0.797997     0.797997
     0.896000     0.750413     0.796489     0.796489
     0.896500     0.749145     0.795587     0.795587
     0.897000     0.747334     0.794106     0.794106
     0.897500     0.742922     0.789858     0.789858
     0.898000     0.739743     0.786916     0.786916
     0.898500     0.736354     0.783747     0.783747
     0.899000     0.735304     0.783065     0.783065
     0.899500     0.732880     0.780918     0.780918
     0.900000     0.730380     0.778686     0.778686
     0.900500     0.727256     0.775787     0.775787
     0.901000     0.724066     0.772813     0.772813
     0.901500     0.720962     0.769927     0.769927
     0.902000     0.718207     0.767410     0.767410
     0.902500     0.717154     0.766710     0.766710
     0.903000     0.714723     0.764534     0.764534
     0.903500     0.711593     0.761608     0.761608
     0.904000     0.708332     0.758536     0.758536
     0.904500     0.705140     0.755536     0.755536
     0.905000     0.701886     0.752465     0.752465
     0.905500     0.698662     0.749422     0.749422
     0.906000     0.695455     0.746395     0.746395
     0.906500     0.694058     0.745307     0.745307
     0.907000     0.691810     0.743302     0.743302
     0.907500     0.688554     0.740212     0.740212
     0.908000     0.685159     0.736968     0.736968
     0.908500     0.681866     0.733830     0.733830
     0.909000     0.678496     0.730605     0.730605
     0.909500     0.675124     0.727373     0.727373
     0.910000     0.671816     0.724208     0.724208
     0.910500     0.669695     0.722318     0.722318
     0.911000     0.667259     0.720085     0.720085
     0.911500     0.663395     0.716308     0.716308
     0.912000     0.659540     0.712537     0.712537
     0.912500     0.655685     0.708760     0.708760
     0.913000     0.651805     0.704952     0.704952
     0.913500     0.648524     0.701788     0.701788
     0.914000     0.646360     0.699829     0.699829
     0.914500     0.642970     0.696540     0.696540
     0.915000     0.639009     0.692626     0.692626
     0.915500     0.635102     0.688768     0.688768
     0.916000     0.631212     0.684923     0.684923
     0.916500     0.627233     0.680977     0.680977
     0.917000     0.624686     0.678582     0.678582
     0.917500     0.622203     0.676253     0.676253
     0.918000     0.618330     0.672410     0.672410
     0.918500     0.614472     0.668579     0.668579
     0.919000     0.610556     0.664679     0.664679
     0.919500     0.606668     0.660806     0.660806
     0.920000     0.602796     0.656946     0.656946
     0.920500     0.599918     0.654164     0.654164
     0.921000     0.598021     0.652450     0.652450
     0.921500     0.596862     0.651539     0.651539
     0.922000     0.594696     0.649528     0.649528
     0.922500     0.592669     0.647664     0.647664
     0.923000     0.590558     0.645707     0.645707
     0.923500     0.587900     0.643149     0.643149
     0.924000     0.585172     0.640512     0.640512
     0.924500     0.583982     0.639555     0.639555
     0.925000     0.582058     0.637792     0.637792
     0.925500     0.579179     0.634980     0.634980
     0.926000     0.576346     0.632216     0.632216
     0.926500     0.573519     0.629455     0.629455
     0.927000     0.570696     0.626694     0.626694
     0.927500     0.567851     0.623906     0.623906
     0.928000     0.565080     0.621197     0.621197
     0.928500     0.562290     0.618463     0.618463
     0.929000     0.559502     0.615728     0.615728
     0.929500     0.556715     0.612990     0.612990
     0.930000     0.553905     0.610224     0.610224
     0.930500     0.550678     0.606995     0.606995
     0.931000     0.547490     0.603806     0.603806
     0.931500     0.544252     0.600557     0.600557
     0.932000     0.541013     0.597303     0.597303
     0.932500     0.538722     0.595093     0.595093
     0.933000     0.536785     0.593272     0.593272
     0.933500     0.533550     0.590012     0.590012
     0.934000     0.530302     0.586734     0.586734
     0.934500     0.527062     0.583462     0.583462
     0.935000     0.523829     0.580192     0.580192
     0.935500     0.520670     0.577002     0.577002
     0.936000     0.517396     0.573680     0.573680
     0.936500     0.514167     0.570405     0.570405
     0.937000     0.510945     0.567133     0.567133
     0.937500     0.508885     0.565148     0.565148
     0.938000     0.506595     0.562905     0.562905
     0.938500     0.503345     0.559592     0.559592
     0.939000     0.500133     0.556318     0.556318
     0.939500     0.496881     0.552994     0.552994
     0.940000     0.493604     0.549639     0.549639
     0.940500     0.491317     0.547384     0.547384
     0.941000     0.489895     0.546090     0.546090
     0.941500     0.487507     0.543717     0.543717
     0.942000     0.484705     0.540878     0.540878
     0.942500     0.481937     0.538075     0.538075
     0.943000     0.479121     0.535215     0.535215
     0.943500     0.476350     0.532401     0.532401
     0.944000     0.473505     0.529503     0.529503
     0.944500     0.470638     0.526575     0.526575
     0.945000     0.467755     0.523626     0.523626
     0.945500     0.465632     0.521525     0.521525
     0.946000     0.463995     0.519967     0.519967
     0.946500     0.461190     0.517097     0.517097
     0.947000     0.458335     0.514167     0.514167
     0.947500     0.455400     0.511145     0.511145
     0.948000     0.452476     0.508131     0.508131
     0.948500     0.449523     0.505080     0.505080
     0.949000     0.447786     0.503394     0.503394
     0.949500     0.445657     0.501264     0.501264
     0.950000     0.442753     0.498261     0.498261
     0.950500     0.439767     0.495161     0.495161
     0.951000     0.436713     0.491980     0.491980
     0.951500     0.433679     0.488819     0.488819
     0.952000     0.430680     0.485694     0.485694
     0.952500     0.427670     0.482553     0.482553
     0.953000     0.424761     0.479522     0.479522
     0.953500     0.421971     0.476623     0.476623
     0.954000     0.420064     0.474717     0.474717
     0.954500     0.417498     0.472065     0.472065
     0.955000     0.414388     0.468793     0.468793
     0.955500     0.411376     0.465630     0.465630
     0.956000     0.408367     0.462466     0.462466
     0.956500     0.405368     0.459310     0.459310
     0.957000     0.402230     0.455993     0.455993
     0.957500     0.399045     0.452619     0.452619
     0.958000     0.395970     0.449365     0.449365
     0.958500     0.393327     0.446599     0.446599
     0.959000     0.391335     0.444569     0.444569
     0.959500     0.388576     0.441664     0.441664
     0.960000     0.385379     0.438258     0.438258
     0.960500     0.382192     0.434860     0.434860
     0.961000     0.379053     0.431514     0.431514
     0.961500     0.375940     0.428193     0.428193
     0.962000     0.372897     0.424948     0.424948
     0.962500     0.369840     0.421683     0.421683
     0.963000     0.366715     0.418337     0.418337
     0.963500     0.363479     0.414861     0.414861
     0.964000     0.360388     0.411546     0.411546
     0.964500     0.358257     0.409325     0.409325
     0.965000     0.355891     0.406833     0.406833
     0.965500     0.352753     0.403454     0.403454
     0.966000     0.349576     0.400028     0.400028
     0.966500     0.346334     0.396523     0.396523
     0.967000     0.343375     0.393339     0.393339
     0.967500     0.340747     0.390530     0.390530
     0.968000     0.338684     0.388366     0.388366
     0.968500     0.335778     0.385232     0.385232
     0.969000     0.332581     0.381762     0.381762
     0.969500     0.329505     0.378426     0.378426
     0.970000     0.326488     0.375154     0.375154
     0.970500     0.324582     0.373157     0.373157
     0.971000     0.322546     0.371007     0.371007
     0.971500     0.320486     0.368828     0.368828
     0.972000     0.318405     0.366621     0.366621
     0.972500     0.316922     0.365101     0.365101
     0.973000     0.315848     0.364051     0.364051
     0.973500     0.313920     0.362015     0.362015
     0.974000     0.311882     0.359850     0.359850
     0.974500     0.309852     0.357691     0.357691
     0.975000     0.307907     0.355628     0.355628
     0.975500     0.305984     0.353588     0.353588
     0.976000     0.304096     0.351586     0.351586
     0.976500     0.302129     0.349491     0.349491
     0.977000     0.300140     0.347368     0.347368
     0.977500     0.298170     0.345265     0.345265
     0.978000     0.296333     0.343313     0.343313
     0.978500     0.294451     0.341306     0.341306
     0.979000     0.292971     0.339765     0.339765
     0.979500     0.291809     0.338590     0.338590
     0.980000     0.290059     0.336731     0.336731
     0.980500     0.287613     0.334062     0.334062
     0.981000     0.285308     0.331554     0.331554
     0.981500     0.282838     0.328851     0.328851
     0.982000     0.280456     0.326247     0.326247
     0.982500     0.278012     0.323570     0.323570
     0.983000     0.275719     0.321064     0.321064
     0.983500     0.273296     0.318404     0.318404
     0.984000     0.270999     0.315889     0.315889
     0.984500     0.268563     0.313209     0.313209
     0.985000     0.266953     0.311488     0.311488
     0.985500     0.264948     0.309306     0.309306
     0.986000     0.262613     0.306735     0.306735
     0.986500     0.260220     0.304095     0.304095
     0.987000     0.257850     0.301478     0.301478
     0.987500     0.255474     0.298851     0.298851
     0.988000     0.253153     0.296286     0.296286
     0.988500     0.250765     0.293640     0.293640
     0.989000     0.249052     0.291781     0.291781
     0.989500     0.247176     0.289729     0.289729
     0.990000     0.244837     0.287134     0.287134
     0.990500     0.242435     0.284460     0.284460
     0.991000     0.240106     0.281869     0.281869
     0.991500     0.237726     0.279216     0.279216
     0.992000     0.235389     0.276611     0.276611
     0.992500     0.232959     0.273893     0.273893
     0.993000     0.230642     0.271306     0.271306
     0.993500     0.228243     0.268619     0.268619
     0.994000     0.225946     0.266049     0.266049
     0.994500     0.223480     0.263278     0.263278
     0.995000     0.221135     0.260646     0.260646
     0.995500     0.219169     0.258459     0.258459
     0.996000     0.217295     0.256378     0.256378
     0.996500     0.214888     0.253665     0.253665
     0.997000     0.212190     0.250606     0.250606
     0.997500     0.209350     0.247376     0.247376
     0.998000     0.207632     0.245469     0.245469
     0.998500     0.205403     0.242956     0.242956
     0.999000     0.203447     0.240762     0.240762
     0.999500     0.201169     0.238185     0.238185
      1.00000     0.197727     0.234227     0.234227
      1.00050     0.196992     0.233473     0.233473
      1.00100     0.195626     0.231970     0.231970
      1.00150     0.193178     0.229182     0.229182
      1.00200     0.190804     0.226478     0.226478
      1.00250     0.188447     0.223792     0.223792
      1.00300     0.186556     0.221657     0.221657
      1.00350     0.184632     0.219480     0.219480
      1.00400     0.182729     0.217326     0.217326
      1.00450     0.180865     0.215217     0.215217
      1.00500     0.178938     0.213030     0.213030
      1.00550     0.176997     0.210823     0.210823
      1.00600     0.175063     0.208624     0.208624
      1.00650     0.173162     0.206461     0.206461
      1.00700     0.171216     0.204242     0.204242
      1.00750     0.169235     0.201980     0.201980
      1.00800     0.167255     0.199715     0.199715
      1.00850     0.165204     0.197364     0.197364
      1.00900     0.163234     0.195107     0.195107
      1.00950     0.161171     0.192737     0.192737
      1.01000     0.159147     0.190410     0.190410
      1.01050     0.157685     0.188755     0.188755
      1.01100     0.156229     0.187104     0.187104
      1.01150     0.154786     0.185467     0.185467
      1.01200     0.153288     0.183764     0.183764
      1.01250     0.151831     0.182107     0.182107
      1.01300     0.150360     0.180432     0.180432
      1.01350     0.148864     0.178725     0.178725
      1.01400     0.147423     0.177083     0.177083
      1.01450     0.145905     0.175345     0.175345
      1.01500     0.144443     0.173673     0.173673
      1.01550     0.142923     0.171930     0.171930
      1.01600     0.141384     0.170163     0.170163
      1.01650     0.139897     0.168457     0.168457
      1.01700     0.138346     0.166671     0.166671
      1.01750     0.136863     0.164965     0.164965
      1.01800     0.135364     0.163239     0.163239
      1.01850     0.133854     0.161497     0.161497
      1.01900     0.132387     0.159806     0.159806
      1.01950     0.130856     0.158035     0.158035
      1.02000     0.129390     0.156341     0.156341
      1.02050     0.128144     0.154911     0.154911
      1.02100     0.126890     0.153470     0.153470
      1.02150     0.125705     0.152111     0.152111
      1.02200     0.124454     0.150672     0.150672
      1.02250     0.123207     0.149235     0.149235
      1.02300     0.121984     0.147825     0.147825
      1.02350     0.120716     0.146361     0.146361
      1.02400     0.119482     0.144936     0.144936
      1.02450     0.118231     0.143488     0.143488
      1.02500     0.116977     0.142035     0.142035
      1.02550     0.115799     0.140674     0.140674
      1.02600     0.114564     0.139241     0.139241
      1.02650     0.113353     0.137836     0.137836
      1.02700     0.112178     0.136474     0.136474
      1.02750     0.110955     0.135051     0.135051
      1.02800     0.109759     0.133661     0.133661
      1.02850     0.108574     0.132282     0.132282
      1.02900     0.107346     0.130850     0.130850
      1.02950     0.106187     0.129500     0.129500
      1.03000     0.104958     0.128063     0.128063
      1.03050     0.103338     0.126148     0.126148
      1.03100     0.101771     0.124295     0.124295
      1.03150     0.100095     0.122308     0.122308
      1.03200    0.0984954     0.120411     0.120411
      1.03250    0.0969268     0.118551     0.118551
      1.03300    0.0952416     0.116546     0.116546
      1.03350    0.0936282     0.114627     0.114627
      1.03400    0.0920295     0.112725     0.112725
      1.03450    0.0903728     0.110749     0.110749
      1.03500    0.0887627     0.108828     0.108828
      1.03550    0.0871791     0.106938     0.106938
      1.03600    0.0855641     0.105008     0.105008
      1.03650    0.0839867     0.103122     0.103122
      1.03700    0.0823879     0.101208     0.101208
      1.03750    0.0807838    0.0992850    0.0992850
      1.03800    0.0792339    0.0974271    0.0974271
      1.03850    0.0776363    0.0955086    0.0955086
      1.03900    0.0760316    0.0935796    0.0935796
      1.03950    0.0745022    0.0917413    0.0917413
      1.04000    0.0729023    0.0898144    0.0898144
      1.04050    0.0714418    0.0880574    0.0880574
      1.04100    0.0700671    0.0864044    0.0864044
      1.04150    0.0686320    0.0846754    0.0846754
      1.04200    0.0671644    0.0829045    0.0829045
      1.04250    0.0657895    0.0812463    0.0812463
      1.04300    0.0643822    0.0795465    0.0795465
      1.04350    0.0633887    0.0783566    0.0783566
      1.04400    0.0624844    0.0772757    0.0772757
      1.04450    0.0615789    0.0761924    0.0761924
      1.04500    0.0605972    0.0750136    0.0750136
      1.04550    0.0596673    0.0738979    0.0738979
      1.04600    0.0587609    0.0728100    0.0728100
      1.04650    0.0577847    0.0716347    0.0716347
      1.04700    0.0568436    0.0705017    0.0705017
      1.04750    0.0559447    0.0694199    0.0694199
      1.04800    0.0549825    0.0682585    0.0682585
      1.04850    0.0540535    0.0671372    0.0671372
      1.04900    0.0531503    0.0660469    0.0660469
      1.04950    0.0522053    0.0649036    0.0649036
      1.05000    0.0512709    0.0637723    0.0637723
      1.05050    0.0503610    0.0626703    0.0626703
      1.05100    0.0494428    0.0615569    0.0615569
      1.05150    0.0484929    0.0604030    0.0604030
      1.05200    0.0475807    0.0592950    0.0592950
      1.05250    0.0466666    0.0581835    0.0581835
      1.05300    0.0457211    0.0570317    0.0570317
      1.05350    0.0452740    0.0565008    0.0565008
      1.05400    0.0448503    0.0559986    0.0559986
      1.05450    0.0443992    0.0554616    0.0554616
      1.05500    0.0439432    0.0549180    0.0549180
      1.05550    0.0435210    0.0544162    0.0544162
      1.05600    0.0430694    0.0538771    0.0538771
      1.05650    0.0426199    0.0533400    0.0533400
      1.05700    0.0421918    0.0528293    0.0528293
      1.05750    0.0417573    0.0523099    0.0523099
      1.05800    0.0412889    0.0517477    0.0517477
      1.05850    0.0408457    0.0512163    0.0512163
      1.05900    0.0404164    0.0507020    0.0507020
      1.05950    0.0399401    0.0501281    0.0501281
      1.06000    0.0394843    0.0495794    0.0495794
      1.06050    0.0390680    0.0490798    0.0490798
      1.06100    0.0386070    0.0485235    0.0485235
      1.06150    0.0381395    0.0479585    0.0479585
      1.06200    0.0377173    0.0474500    0.0474500
      1.06250    0.0372732    0.0469134    0.0469134
      1.06300    0.0367946    0.0463328    0.0463328
      1.06350    0.0363537    0.0457991    0.0457991
      1.06400    0.0359165    0.0452697    0.0452697
      1.06450    0.0354481    0.0447002    0.0447002
      1.06500    0.0349914    0.0441451    0.0441451
      1.06550    0.0345376    0.0435930    0.0435930
      1.06600    0.0340707    0.0430238    0.0430238
      1.06650    0.0335978    0.0424467    0.0424467
      1.06700    0.0331302    0.0418755    0.0418755
      1.06750    0.0326694    0.0413124    0.0413124
      1.06800    0.0322049    0.0407441    0.0407441
      1.06850    0.0317309    0.0401632    0.0401632
      1.06900    0.0312689    0.0395969    0.0395969
      1.06950    0.0308101    0.0390342    0.0390342
      1.07000    0.0303365    0.0384521    0.0384521
      1.07050    0.0298677    0.0378757    0.0378757
      1.07100    0.0294086    0.0373109    0.0373109
      1.07150    0.0289413    0.0367351    0.0367351
      1.07200    0.0284676    0.0361507    0.0361507
      1.07250    0.0279915    0.0355627    0.0355627
      1.07300    0.0275232    0.0349840    0.0349840
      1.07350    0.0270453    0.0343927    0.0343927
      1.07400    0.0265618    0.0337935    0.0337935
      1.07450    0.0260776    0.0331929    0.0331929
      1.07500    0.0256069    0.0326089    0.0326089
      1.07550    0.0251198    0.0320035    0.0320035
      1.07600    0.0246235    0.0313859    0.0313859
      1.07650    0.0241374    0.0307805    0.0307805
      1.07700    0.0236465    0.0301685    0.0301685
      1.07750    0.0231613    0.0295633    0.0295633
      1.07800    0.0226639    0.0289417    0.0289417
      1.07850    0.0221646    0.0283173    0.0283173
      1.07900    0.0216649    0.0276917    0.0276917
      1.07950    0.0211726    0.0270749    0.0270749
      1.08000    0.0206682    0.0264422    0.0264422
      1.08050    0.0201724    0.0258199    0.0258199
      1.08100    0.0201786    0.0258398    0.0258398
      1.08150    0.0201857    0.0258608    0.0258608
      1.08200    0.0201906    0.0258790    0.0258790
      1.08250    0.0201979    0.0259004    0.0259004
      1.08300    0.0201977    0.0259121    0.0259121
      1.08350    0.0196990    0.0252839    0.0252839
      1.08400    0.0192046    0.0246607    0.0246607
      1.08450    0.0186947    0.0240170    0.0240170
      1.08500    0.0181930    0.0233833    0.0233833
      1.08550    0.0176875    0.0227440    0.0227440
      1.08600    0.0171756    0.0220959    0.0220959
      1.08650    0.0166721    0.0214581    0.0214581
      1.08700    0.0161614    0.0208103    0.0208103
      1.08750    0.0156469    0.0201571    0.0201571
      1.08800    0.0151428    0.0195167    0.0195167
      1.08850    0.0151365    0.0195175    0.0195175
      1.08900    0.0151291    0.0195169    0.0195169
      1.08950    0.0151254    0.0195211    0.0195211
      1.09000    0.0151126    0.0195136    0.0195136
      1.09050    0.0151071    0.0195155    0.0195155
      1.09100    0.0151070    0.0195242    0.0195242
      1.09150    0.0150931    0.0195153    0.0195153
      1.09200    0.0150826    0.0195105    0.0195105
      1.09250    0.0150805    0.0195168    0.0195168
      1.09300    0.0150715    0.0195140    0.0195140
      1.09350    0.0145712    0.0188750    0.0188750
      1.09400    0.0140628    0.0182247    0.0182247
      1.09450    0.0135517    0.0175703    0.0175703
      1.09500    0.0130462    0.0169227    0.0169227
      1.09550    0.0125422    0.0162764    0.0162764
      1.09600    0.0125364    0.0162763    0.0162763
      1.09650    0.0125291    0.0162742    0.0162742
      1.09700    0.0125190    0.0162685    0.0162685
      1.09750    0.0125153    0.0162711    0.0162711
      1.09800    0.0125133    0.0162759    0.0162759
      1.09850    0.0120076    0.0156253    0.0156253
      1.09900    0.0114987    0.0149698    0.0149698
      1.09950    0.0109884    0.0143121    0.0143121
      1.10000    0.0104852    0.0136628    0.0136628
      1.20000      0.00000      0.00000      0.00000
